#  E (eV)   dosup(E)     dosdw(E)   Int dos(E) EFermi = 134.390 eV
  21.868  0.7145E-06  0.7145E-06  0.7145E-06
  22.368  0.1429E+00  0.1429E+00  0.1429E+00
  22.868  0.1658E+00  0.1658E+00  0.3087E+00
  23.368  0.2005E+00  0.2005E+00  0.5092E+00
  23.868  0.3730E+00  0.3730E+00  0.8823E+00
  24.368  0.5241E+00  0.5241E+00  0.1406E+01
  24.868  0.3807E+00  0.3807E+00  0.1787E+01
  25.368  0.1511E+00  0.1511E+00  0.1938E+01
  25.868  0.7676E-02  0.7676E-02  0.1946E+01
  26.368  0.4086E-18  0.4086E-18  0.1946E+01
  26.868  0.3337E-58  0.3337E-58  0.1946E+01
  27.368  0.1886E-84  0.1886E-84  0.1946E+01
  27.868  0.1886E-84  0.1886E-84  0.1946E+01
  28.368  0.1886E-84  0.1886E-84  0.1946E+01
  28.868  0.1886E-84  0.1886E-84  0.1946E+01
  29.368  0.1886E-84  0.1886E-84  0.1946E+01
  29.868  0.1886E-84  0.1886E-84  0.1946E+01
  30.368  0.1886E-84  0.1886E-84  0.1946E+01
  30.868  0.1886E-84  0.1886E-84  0.1946E+01
  31.368  0.1886E-84  0.1886E-84  0.1946E+01
  31.868  0.1886E-84  0.1886E-84  0.1946E+01
  32.368  0.1886E-84  0.1886E-84  0.1946E+01
  32.868  0.1886E-84  0.1886E-84  0.1946E+01
  33.368  0.1886E-84  0.1886E-84  0.1946E+01
  33.868  0.1886E-84  0.1886E-84  0.1946E+01
  34.368  0.1886E-84  0.1886E-84  0.1946E+01
  34.868  0.1886E-84  0.1886E-84  0.1946E+01
  35.368  0.1886E-84  0.1886E-84  0.1946E+01
  35.868  0.1886E-84  0.1886E-84  0.1946E+01
  36.368  0.1886E-84  0.1886E-84  0.1946E+01
  36.868  0.1886E-84  0.1886E-84  0.1946E+01
  37.368  0.1886E-84  0.1886E-84  0.1946E+01
  37.868  0.1886E-84  0.1886E-84  0.1946E+01
  38.368  0.1886E-84  0.1886E-84  0.1946E+01
  38.868  0.1886E-84  0.1886E-84  0.1946E+01
  39.368  0.1886E-84  0.1886E-84  0.1946E+01
  39.868  0.1886E-84  0.1886E-84  0.1946E+01
  40.368  0.1886E-84  0.1886E-84  0.1946E+01
  40.868  0.1886E-84  0.1886E-84  0.1946E+01
  41.368  0.1886E-84  0.1886E-84  0.1946E+01
  41.868  0.1886E-84  0.1886E-84  0.1946E+01
  42.368  0.1886E-84  0.1886E-84  0.1946E+01
  42.868  0.1886E-84  0.1886E-84  0.1946E+01
  43.368  0.1886E-84  0.1886E-84  0.1946E+01
  43.868  0.1886E-84  0.1886E-84  0.1946E+01
  44.368  0.1886E-84  0.1886E-84  0.1946E+01
  44.868  0.1886E-84  0.1886E-84  0.1946E+01
  45.368  0.1886E-84  0.1886E-84  0.1946E+01
  45.868  0.1886E-84  0.1886E-84  0.1946E+01
  46.368  0.1886E-84  0.1886E-84  0.1946E+01
  46.868  0.1886E-84  0.1886E-84  0.1946E+01
  47.368  0.1886E-84  0.1886E-84  0.1946E+01
  47.868  0.6360E-82  0.6361E-82  0.1946E+01
  48.368  0.5091E-32  0.5091E-32  0.1946E+01
  48.868  0.5186E-06  0.5186E-06  0.1946E+01
  49.368  0.6102E-01  0.6102E-01  0.2007E+01
  49.868  0.4121E-01  0.4121E-01  0.2048E+01
  50.368  0.2407E+00  0.2407E+00  0.2289E+01
  50.868  0.3200E+00  0.3200E+00  0.2609E+01
  51.368  0.4351E+00  0.4351E+00  0.3044E+01
  51.868  0.3996E+00  0.3996E+00  0.3443E+01
  52.368  0.4036E+00  0.4036E+00  0.3847E+01
  52.868  0.7191E+00  0.7191E+00  0.4566E+01
  53.368  0.5702E+00  0.5702E+00  0.5136E+01
  53.868  0.4221E+00  0.4221E+00  0.5558E+01
  54.368  0.5012E+00  0.5012E+00  0.6060E+01
  54.868  0.6648E+00  0.6648E+00  0.6724E+01
  55.368  0.6006E+00  0.6006E+00  0.7325E+01
  55.868  0.2345E+00  0.2345E+00  0.7560E+01
  56.368  0.2498E+00  0.2498E+00  0.7809E+01
  56.868  0.1068E+00  0.1068E+00  0.7916E+01
  57.368  0.1205E+00  0.1205E+00  0.8037E+01
  57.868  0.4797E-01  0.4797E-01  0.8085E+01
  58.368  0.9327E-13  0.9327E-13  0.8085E+01
  58.868  0.6762E-48  0.6762E-48  0.8085E+01
  59.368  0.1886E-84  0.1886E-84  0.8085E+01
  59.868  0.1886E-84  0.1886E-84  0.8085E+01
  60.368  0.1886E-84  0.1886E-84  0.8085E+01
  60.868  0.9006E-65  0.9006E-65  0.8085E+01
  61.368  0.4909E-22  0.4909E-22  0.8085E+01
  61.868  0.3075E-03  0.3075E-03  0.8085E+01
  62.368  0.3013E-03  0.3013E-03  0.8085E+01
  62.868  0.1152E-01  0.1152E-01  0.8097E+01
  63.368  0.8803E-04  0.8803E-04  0.8097E+01
  63.868  0.1438E-02  0.1438E-02  0.8098E+01
  64.368  0.6881E-02  0.6881E-02  0.8105E+01
  64.868  0.2149E-04  0.2149E-04  0.8105E+01
  65.368  0.1036E-01  0.1036E-01  0.8115E+01
  65.868  0.2504E-01  0.2504E-01  0.8140E+01
  66.368  0.2787E-01  0.2787E-01  0.8168E+01
  66.868  0.1062E-01  0.1062E-01  0.8179E+01
  67.368  0.6674E-02  0.6674E-02  0.8186E+01
  67.868  0.2629E-01  0.2629E-01  0.8212E+01
  68.368  0.1074E-01  0.1074E-01  0.8223E+01
  68.868  0.3579E-02  0.3579E-02  0.8226E+01
  69.368  0.2834E-01  0.2834E-01  0.8255E+01
  69.868  0.2123E-01  0.2123E-01  0.8276E+01
  70.368  0.1036E-01  0.1036E-01  0.8286E+01
  70.868  0.6066E-01  0.6066E-01  0.8347E+01
  71.368  0.1947E-01  0.1947E-01  0.8366E+01
  71.868  0.2532E-01  0.2532E-01  0.8392E+01
  72.368  0.4361E-01  0.4361E-01  0.8435E+01
  72.868  0.3918E-01  0.3918E-01  0.8474E+01
  73.368  0.2305E-01  0.2305E-01  0.8497E+01
  73.868  0.7461E-01  0.7461E-01  0.8572E+01
  74.368  0.8155E-01  0.8155E-01  0.8654E+01
  74.868  0.3553E-01  0.3553E-01  0.8689E+01
  75.368  0.3613E-01  0.3613E-01  0.8725E+01
  75.868  0.1244E+00  0.1244E+00  0.8850E+01
  76.368  0.7271E-01  0.7271E-01  0.8922E+01
  76.868  0.7734E-01  0.7734E-01  0.9000E+01
  77.368  0.1116E+00  0.1116E+00  0.9111E+01
  77.868  0.1018E+00  0.1018E+00  0.9213E+01
  78.368  0.1252E+00  0.1252E+00  0.9338E+01
  78.868  0.3170E-01  0.3170E-01  0.9370E+01
  79.368  0.7611E-01  0.7611E-01  0.9446E+01
  79.868  0.1427E+00  0.1427E+00  0.9589E+01
  80.368  0.1322E+00  0.1322E+00  0.9721E+01
  80.868  0.2360E+00  0.2360E+00  0.9957E+01
  81.368  0.2700E+00  0.2700E+00  0.1023E+02
  81.868  0.2536E+00  0.2536E+00  0.1048E+02
  82.368  0.1751E+00  0.1751E+00  0.1066E+02
  82.868  0.3351E+00  0.3351E+00  0.1099E+02
  83.368  0.2935E+00  0.2935E+00  0.1128E+02
  83.868  0.2636E+00  0.2636E+00  0.1155E+02
  84.368  0.2723E+00  0.2723E+00  0.1182E+02
  84.868  0.3059E+00  0.3059E+00  0.1213E+02
  85.368  0.2525E+00  0.2525E+00  0.1238E+02
  85.868  0.2925E+00  0.2925E+00  0.1267E+02
  86.368  0.4301E+00  0.4301E+00  0.1310E+02
  86.868  0.2911E+00  0.2911E+00  0.1339E+02
  87.368  0.3827E+00  0.3827E+00  0.1378E+02
  87.868  0.3999E+00  0.3999E+00  0.1417E+02
  88.368  0.3077E+00  0.3077E+00  0.1448E+02
  88.868  0.4913E+00  0.4913E+00  0.1497E+02
  89.368  0.3792E+00  0.3792E+00  0.1535E+02
  89.868  0.3848E+00  0.3848E+00  0.1574E+02
  90.368  0.3070E+00  0.3070E+00  0.1604E+02
  90.868  0.3777E+00  0.3777E+00  0.1642E+02
  91.368  0.4982E+00  0.4982E+00  0.1692E+02
  91.868  0.3194E+00  0.3194E+00  0.1724E+02
  92.368  0.3252E+00  0.3252E+00  0.1757E+02
  92.868  0.3489E+00  0.3489E+00  0.1791E+02
  93.368  0.4404E+00  0.4404E+00  0.1835E+02
  93.868  0.2352E+00  0.2352E+00  0.1859E+02
  94.368  0.1677E+00  0.1677E+00  0.1876E+02
  94.868  0.2986E+00  0.2986E+00  0.1906E+02
  95.368  0.3544E+00  0.3544E+00  0.1941E+02
  95.868  0.1628E+00  0.1628E+00  0.1957E+02
  96.368  0.2236E+00  0.2236E+00  0.1980E+02
  96.868  0.1434E+00  0.1434E+00  0.1994E+02
  97.368  0.1940E+00  0.1940E+00  0.2013E+02
  97.868  0.1900E+00  0.1900E+00  0.2032E+02
  98.368  0.2465E+00  0.2465E+00  0.2057E+02
  98.868  0.1456E+00  0.1456E+00  0.2072E+02
  99.368  0.2325E+00  0.2325E+00  0.2095E+02
  99.868  0.2402E+00  0.2402E+00  0.2119E+02
 100.368  0.1524E+00  0.1524E+00  0.2134E+02
 100.868  0.1702E+00  0.1702E+00  0.2151E+02
 101.368  0.1628E+00  0.1628E+00  0.2167E+02
 101.868  0.1195E+00  0.1195E+00  0.2179E+02
 102.368  0.2219E+00  0.2219E+00  0.2202E+02
 102.868  0.1616E+00  0.1616E+00  0.2218E+02
 103.368  0.8121E-01  0.8121E-01  0.2226E+02
 103.868  0.1405E+00  0.1405E+00  0.2240E+02
 104.368  0.1627E+00  0.1627E+00  0.2256E+02
 104.868  0.1677E+00  0.1677E+00  0.2273E+02
 105.368  0.1944E+00  0.1944E+00  0.2292E+02
 105.868  0.1956E+00  0.1956E+00  0.2312E+02
 106.368  0.2796E+00  0.2796E+00  0.2340E+02
 106.868  0.2120E+00  0.2120E+00  0.2361E+02
 107.368  0.2893E+00  0.2893E+00  0.2390E+02
 107.868  0.3450E+00  0.3450E+00  0.2425E+02
 108.368  0.2864E+00  0.2864E+00  0.2453E+02
 108.868  0.2246E+00  0.2246E+00  0.2476E+02
 109.368  0.2082E+00  0.2082E+00  0.2496E+02
 109.868  0.1833E+00  0.1833E+00  0.2515E+02
 110.368  0.3645E+00  0.3645E+00  0.2551E+02
 110.868  0.2887E+00  0.2887E+00  0.2580E+02
 111.368  0.2604E+00  0.2604E+00  0.2606E+02
 111.868  0.2015E+00  0.2015E+00  0.2626E+02
 112.368  0.1914E+00  0.1914E+00  0.2645E+02
 112.868  0.3344E+00  0.3344E+00  0.2679E+02
 113.368  0.3223E+00  0.3223E+00  0.2711E+02
 113.868  0.3481E+00  0.3481E+00  0.2746E+02
 114.368  0.1730E+00  0.1730E+00  0.2763E+02
 114.868  0.1428E+00  0.1428E+00  0.2778E+02
 115.368  0.1417E+00  0.1417E+00  0.2792E+02
 115.868  0.1612E+00  0.1612E+00  0.2808E+02
 116.368  0.2326E+00  0.2326E+00  0.2831E+02
 116.868  0.1849E+00  0.1849E+00  0.2850E+02
 117.368  0.1272E+00  0.1272E+00  0.2862E+02
 117.868  0.1836E+00  0.1836E+00  0.2881E+02
 118.368  0.2783E+00  0.2783E+00  0.2908E+02
 118.868  0.1787E+00  0.1787E+00  0.2926E+02
 119.368  0.4069E+00  0.4069E+00  0.2967E+02
 119.868  0.4429E+00  0.4429E+00  0.3011E+02
 120.368  0.4010E+00  0.4010E+00  0.3051E+02
 120.868  0.3614E+00  0.3614E+00  0.3088E+02
 121.368  0.5087E+00  0.5087E+00  0.3138E+02
 121.868  0.4459E+00  0.4459E+00  0.3183E+02
 122.368  0.3349E+00  0.3349E+00  0.3216E+02
 122.868  0.2759E+00  0.2759E+00  0.3244E+02
 123.368  0.3335E+00  0.3335E+00  0.3277E+02
 123.868  0.2517E+00  0.2517E+00  0.3303E+02
 124.368  0.3478E+00  0.3478E+00  0.3337E+02
 124.868  0.1909E+00  0.1909E+00  0.3356E+02
 125.368  0.2806E+00  0.2806E+00  0.3385E+02
 125.868  0.2397E+00  0.2397E+00  0.3408E+02
 126.368  0.2112E+00  0.2112E+00  0.3430E+02
 126.868  0.2196E+00  0.2196E+00  0.3452E+02
 127.368  0.2362E+00  0.2362E+00  0.3475E+02
 127.868  0.1816E+00  0.1816E+00  0.3493E+02
 128.368  0.2977E+00  0.2977E+00  0.3523E+02
 128.868  0.1587E+00  0.1587E+00  0.3539E+02
 129.368  0.2605E+00  0.2605E+00  0.3565E+02
 129.868  0.2220E+00  0.2220E+00  0.3587E+02
 130.368  0.2350E+00  0.2350E+00  0.3611E+02
 130.868  0.2660E+00  0.2660E+00  0.3637E+02
 131.368  0.1911E+00  0.1911E+00  0.3656E+02
 131.868  0.1744E+00  0.1744E+00  0.3674E+02
 132.368  0.1497E+00  0.1497E+00  0.3689E+02
 132.868  0.2861E+00  0.2861E+00  0.3717E+02
 133.368  0.1629E+00  0.1629E+00  0.3734E+02
 133.868  0.1800E+00  0.1800E+00  0.3752E+02
 134.368  0.3563E+00  0.3563E+00  0.3787E+02
 134.868  0.2635E+00  0.2635E+00  0.3814E+02
 135.368  0.2129E+00  0.2129E+00  0.3835E+02
 135.868  0.2656E+00  0.2656E+00  0.3862E+02
 136.368  0.2424E+00  0.2424E+00  0.3886E+02
 136.868  0.1963E+00  0.1963E+00  0.3905E+02
 137.368  0.1782E+00  0.1782E+00  0.3923E+02
 137.868  0.1657E+00  0.1657E+00  0.3940E+02
 138.368  0.1684E+00  0.1684E+00  0.3957E+02
 138.868  0.3373E+00  0.3373E+00  0.3990E+02
 139.368  0.1903E+00  0.1903E+00  0.4009E+02
 139.868  0.2021E+00  0.2021E+00  0.4030E+02
 140.368  0.9714E-01  0.9714E-01  0.4039E+02
 140.868  0.1112E+00  0.1112E+00  0.4050E+02
 141.368  0.4372E-01  0.4372E-01  0.4055E+02
 141.868  0.1383E+00  0.1383E+00  0.4069E+02
 142.368  0.9931E-01  0.9931E-01  0.4079E+02
 142.868  0.1336E+00  0.1336E+00  0.4092E+02
 143.368  0.8105E-01  0.8105E-01  0.4100E+02
 143.868  0.3494E-01  0.3494E-01  0.4104E+02
 144.368  0.5382E-01  0.5382E-01  0.4109E+02
 144.868  0.5697E-01  0.5697E-01  0.4115E+02
 145.368  0.1620E+00  0.1620E+00  0.4131E+02
 145.868  0.1229E+00  0.1229E+00  0.4143E+02
 146.368  0.4765E-01  0.4765E-01  0.4148E+02
 146.868  0.1216E+00  0.1216E+00  0.4160E+02
 147.368  0.1692E+00  0.1692E+00  0.4177E+02
 147.868  0.6612E-01  0.6612E-01  0.4184E+02
 148.368  0.1143E+00  0.1143E+00  0.4195E+02
 148.868  0.2048E-01  0.2048E-01  0.4197E+02
 149.368  0.1153E+00  0.1153E+00  0.4209E+02
 149.868  0.1070E+00  0.1070E+00  0.4219E+02
 150.368  0.9129E-01  0.9129E-01  0.4228E+02
 150.868  0.2832E-01  0.2832E-01  0.4231E+02
 151.368  0.1359E+00  0.1359E+00  0.4245E+02
 151.868  0.8162E-01  0.8162E-01  0.4253E+02
 152.368  0.1751E+00  0.1751E+00  0.4271E+02
 152.868  0.5302E-01  0.5302E-01  0.4276E+02
 153.368  0.1816E+00  0.1816E+00  0.4294E+02
 153.868  0.9080E-01  0.9080E-01  0.4303E+02
 154.368  0.1144E+00  0.1144E+00  0.4315E+02
 154.868  0.9704E-01  0.9704E-01  0.4324E+02
 155.368  0.7102E-01  0.7102E-01  0.4331E+02
 155.868  0.1536E+00  0.1536E+00  0.4347E+02
 156.368  0.8942E-01  0.8942E-01  0.4356E+02
 156.868  0.1146E+00  0.1146E+00  0.4367E+02
 157.368  0.1309E+00  0.1309E+00  0.4380E+02
 157.868  0.6893E-01  0.6893E-01  0.4387E+02
