#  E (eV)   dosup(E)     dosdw(E)   Int dos(E) EFermi = 134.366 eV
  21.821  0.7145E-06  0.7145E-06  0.7145E-06
  22.321  0.1429E+00  0.1429E+00  0.1429E+00
  22.821  0.1653E+00  0.1653E+00  0.3082E+00
  23.321  0.2003E+00  0.2003E+00  0.5085E+00
  23.821  0.3717E+00  0.3717E+00  0.8802E+00
  24.321  0.5226E+00  0.5226E+00  0.1403E+01
  24.821  0.3821E+00  0.3821E+00  0.1785E+01
  25.321  0.1514E+00  0.1514E+00  0.1936E+01
  25.821  0.7572E-02  0.7572E-02  0.1944E+01
  26.321  0.3755E-18  0.3755E-18  0.1944E+01
  26.821  0.2861E-58  0.2861E-58  0.1944E+01
  27.321  0.1886E-84  0.1886E-84  0.1944E+01
  27.821  0.1886E-84  0.1886E-84  0.1944E+01
  28.321  0.1886E-84  0.1886E-84  0.1944E+01
  28.821  0.1886E-84  0.1886E-84  0.1944E+01
  29.321  0.1886E-84  0.1886E-84  0.1944E+01
  29.821  0.1886E-84  0.1886E-84  0.1944E+01
  30.321  0.1886E-84  0.1886E-84  0.1944E+01
  30.821  0.1886E-84  0.1886E-84  0.1944E+01
  31.321  0.1886E-84  0.1886E-84  0.1944E+01
  31.821  0.1886E-84  0.1886E-84  0.1944E+01
  32.321  0.1886E-84  0.1886E-84  0.1944E+01
  32.821  0.1886E-84  0.1886E-84  0.1944E+01
  33.321  0.1886E-84  0.1886E-84  0.1944E+01
  33.821  0.1886E-84  0.1886E-84  0.1944E+01
  34.321  0.1886E-84  0.1886E-84  0.1944E+01
  34.821  0.1886E-84  0.1886E-84  0.1944E+01
  35.321  0.1886E-84  0.1886E-84  0.1944E+01
  35.821  0.1886E-84  0.1886E-84  0.1944E+01
  36.321  0.1886E-84  0.1886E-84  0.1944E+01
  36.821  0.1886E-84  0.1886E-84  0.1944E+01
  37.321  0.1886E-84  0.1886E-84  0.1944E+01
  37.821  0.1886E-84  0.1886E-84  0.1944E+01
  38.321  0.1886E-84  0.1886E-84  0.1944E+01
  38.821  0.1886E-84  0.1886E-84  0.1944E+01
  39.321  0.1886E-84  0.1886E-84  0.1944E+01
  39.821  0.1886E-84  0.1886E-84  0.1944E+01
  40.321  0.1886E-84  0.1886E-84  0.1944E+01
  40.821  0.1886E-84  0.1886E-84  0.1944E+01
  41.321  0.1886E-84  0.1886E-84  0.1944E+01
  41.821  0.1886E-84  0.1886E-84  0.1944E+01
  42.321  0.1886E-84  0.1886E-84  0.1944E+01
  42.821  0.1886E-84  0.1886E-84  0.1944E+01
  43.321  0.1886E-84  0.1886E-84  0.1944E+01
  43.821  0.1886E-84  0.1886E-84  0.1944E+01
  44.321  0.1886E-84  0.1886E-84  0.1944E+01
  44.821  0.1886E-84  0.1886E-84  0.1944E+01
  45.321  0.1886E-84  0.1886E-84  0.1944E+01
  45.821  0.1886E-84  0.1886E-84  0.1944E+01
  46.321  0.1886E-84  0.1886E-84  0.1944E+01
  46.821  0.1886E-84  0.1886E-84  0.1944E+01
  47.321  0.1886E-84  0.1886E-84  0.1944E+01
  47.821  0.2700E-81  0.2700E-81  0.1944E+01
  48.321  0.1235E-31  0.1235E-31  0.1944E+01
  48.821  0.7035E-06  0.7035E-06  0.1944E+01
  49.321  0.6126E-01  0.6126E-01  0.2005E+01
  49.821  0.4075E-01  0.4075E-01  0.2046E+01
  50.321  0.2182E+00  0.2182E+00  0.2264E+01
  50.821  0.3484E+00  0.3484E+00  0.2613E+01
  51.321  0.4378E+00  0.4378E+00  0.3050E+01
  51.821  0.3922E+00  0.3922E+00  0.3443E+01
  52.321  0.4116E+00  0.4116E+00  0.3854E+01
  52.821  0.7024E+00  0.7024E+00  0.4557E+01
  53.321  0.5956E+00  0.5956E+00  0.5152E+01
  53.821  0.4409E+00  0.4409E+00  0.5593E+01
  54.321  0.5010E+00  0.5010E+00  0.6094E+01
  54.821  0.6499E+00  0.6499E+00  0.6744E+01
  55.321  0.6167E+00  0.6167E+00  0.7361E+01
  55.821  0.2295E+00  0.2295E+00  0.7590E+01
  56.321  0.2461E+00  0.2461E+00  0.7836E+01
  56.821  0.1066E+00  0.1066E+00  0.7943E+01
  57.321  0.1177E+00  0.1177E+00  0.8061E+01
  57.821  0.4998E-01  0.4998E-01  0.8111E+01
  58.321  0.3112E-12  0.3112E-12  0.8111E+01
  58.821  0.7657E-47  0.7658E-47  0.8111E+01
  59.321  0.1886E-84  0.1886E-84  0.8111E+01
  59.821  0.1886E-84  0.1886E-84  0.8111E+01
  60.321  0.1886E-84  0.1886E-84  0.8111E+01
  60.821  0.2777E-72  0.2777E-72  0.8111E+01
  61.321  0.2364E-26  0.2364E-26  0.8111E+01
  61.821  0.2312E-04  0.2312E-04  0.8111E+01
  62.321  0.1671E-04  0.1671E-04  0.8111E+01
  62.821  0.6534E-02  0.6534E-02  0.8117E+01
  63.321  0.2458E-03  0.2458E-03  0.8117E+01
  63.821  0.3714E-02  0.3714E-02  0.8121E+01
  64.321  0.1157E-01  0.1157E-01  0.8133E+01
  64.821  0.3512E-03  0.3512E-03  0.8133E+01
  65.321  0.7374E-02  0.7374E-02  0.8140E+01
  65.821  0.1354E-01  0.1354E-01  0.8154E+01
  66.321  0.3420E-01  0.3420E-01  0.8188E+01
  66.821  0.1941E-02  0.1941E-02  0.8190E+01
  67.321  0.9795E-02  0.9795E-02  0.8200E+01
  67.821  0.2148E-01  0.2148E-01  0.8221E+01
  68.321  0.1689E-01  0.1689E-01  0.8238E+01
  68.821  0.8780E-02  0.8780E-02  0.8247E+01
  69.321  0.3226E-01  0.3226E-01  0.8279E+01
  69.821  0.2307E-01  0.2307E-01  0.8302E+01
  70.321  0.2391E-01  0.2391E-01  0.8326E+01
  70.821  0.4180E-01  0.4180E-01  0.8368E+01
  71.321  0.1276E-01  0.1276E-01  0.8381E+01
  71.821  0.1857E-01  0.1857E-01  0.8399E+01
  72.321  0.4495E-01  0.4495E-01  0.8444E+01
  72.821  0.3145E-01  0.3145E-01  0.8476E+01
  73.321  0.2671E-01  0.2671E-01  0.8502E+01
  73.821  0.5392E-01  0.5392E-01  0.8556E+01
  74.321  0.7055E-01  0.7055E-01  0.8627E+01
  74.821  0.3769E-01  0.3769E-01  0.8665E+01
  75.321  0.3990E-01  0.3990E-01  0.8704E+01
  75.821  0.1350E+00  0.1350E+00  0.8840E+01
  76.321  0.9086E-01  0.9086E-01  0.8930E+01
  76.821  0.9784E-01  0.9784E-01  0.9028E+01
  77.321  0.1065E+00  0.1065E+00  0.9135E+01
  77.821  0.1189E+00  0.1189E+00  0.9254E+01
  78.321  0.1463E+00  0.1463E+00  0.9400E+01
  78.821  0.4759E-01  0.4759E-01  0.9448E+01
  79.321  0.4851E-01  0.4851E-01  0.9496E+01
  79.821  0.1353E+00  0.1353E+00  0.9631E+01
  80.321  0.1351E+00  0.1351E+00  0.9767E+01
  80.821  0.2299E+00  0.2299E+00  0.9996E+01
  81.321  0.2473E+00  0.2473E+00  0.1024E+02
  81.821  0.2408E+00  0.2408E+00  0.1048E+02
  82.321  0.1928E+00  0.1928E+00  0.1068E+02
  82.821  0.3100E+00  0.3100E+00  0.1099E+02
  83.321  0.3055E+00  0.3055E+00  0.1129E+02
  83.821  0.2415E+00  0.2415E+00  0.1153E+02
  84.321  0.2771E+00  0.2771E+00  0.1181E+02
  84.821  0.2749E+00  0.2749E+00  0.1209E+02
  85.321  0.2628E+00  0.2628E+00  0.1235E+02
  85.821  0.2875E+00  0.2875E+00  0.1264E+02
  86.321  0.3684E+00  0.3684E+00  0.1300E+02
  86.821  0.2712E+00  0.2712E+00  0.1328E+02
  87.321  0.3646E+00  0.3646E+00  0.1364E+02
  87.821  0.3371E+00  0.3371E+00  0.1398E+02
  88.321  0.3311E+00  0.3311E+00  0.1431E+02
  88.821  0.3994E+00  0.3994E+00  0.1471E+02
  89.321  0.3859E+00  0.3859E+00  0.1509E+02
  89.821  0.3600E+00  0.3600E+00  0.1545E+02
  90.321  0.3257E+00  0.3257E+00  0.1578E+02
  90.821  0.3912E+00  0.3912E+00  0.1617E+02
  91.321  0.4526E+00  0.4526E+00  0.1662E+02
  91.821  0.3092E+00  0.3092E+00  0.1693E+02
  92.321  0.3375E+00  0.3375E+00  0.1727E+02
  92.821  0.3494E+00  0.3494E+00  0.1762E+02
  93.321  0.4244E+00  0.4244E+00  0.1804E+02
  93.821  0.2438E+00  0.2438E+00  0.1829E+02
  94.321  0.1855E+00  0.1855E+00  0.1847E+02
  94.821  0.3124E+00  0.3124E+00  0.1879E+02
  95.321  0.3624E+00  0.3624E+00  0.1915E+02
  95.821  0.1607E+00  0.1607E+00  0.1931E+02
  96.321  0.2120E+00  0.2120E+00  0.1952E+02
  96.821  0.1855E+00  0.1855E+00  0.1971E+02
  97.321  0.1782E+00  0.1782E+00  0.1988E+02
  97.821  0.1655E+00  0.1655E+00  0.2005E+02
  98.321  0.2329E+00  0.2329E+00  0.2028E+02
  98.821  0.1252E+00  0.1252E+00  0.2041E+02
  99.321  0.2333E+00  0.2333E+00  0.2064E+02
  99.821  0.2434E+00  0.2434E+00  0.2089E+02
 100.321  0.1766E+00  0.1766E+00  0.2106E+02
 100.821  0.1787E+00  0.1787E+00  0.2124E+02
 101.321  0.1385E+00  0.1385E+00  0.2138E+02
 101.821  0.8841E-01  0.8841E-01  0.2147E+02
 102.321  0.2143E+00  0.2143E+00  0.2168E+02
 102.821  0.1701E+00  0.1701E+00  0.2185E+02
 103.321  0.7174E-01  0.7174E-01  0.2192E+02
 103.821  0.1383E+00  0.1383E+00  0.2206E+02
 104.321  0.1641E+00  0.1641E+00  0.2223E+02
 104.821  0.1764E+00  0.1764E+00  0.2240E+02
 105.321  0.1487E+00  0.1487E+00  0.2255E+02
 105.821  0.2278E+00  0.2278E+00  0.2278E+02
 106.321  0.2407E+00  0.2407E+00  0.2302E+02
 106.821  0.2307E+00  0.2307E+00  0.2325E+02
 107.321  0.3090E+00  0.3090E+00  0.2356E+02
 107.821  0.3988E+00  0.3988E+00  0.2396E+02
 108.321  0.2619E+00  0.2619E+00  0.2422E+02
 108.821  0.2756E+00  0.2756E+00  0.2450E+02
 109.321  0.2261E+00  0.2261E+00  0.2472E+02
 109.821  0.1699E+00  0.1699E+00  0.2489E+02
 110.321  0.3985E+00  0.3985E+00  0.2529E+02
 110.821  0.2566E+00  0.2566E+00  0.2555E+02
 111.321  0.2888E+00  0.2888E+00  0.2584E+02
 111.821  0.1900E+00  0.1900E+00  0.2603E+02
 112.321  0.2252E+00  0.2252E+00  0.2625E+02
 112.821  0.3930E+00  0.3930E+00  0.2664E+02
 113.321  0.3374E+00  0.3374E+00  0.2698E+02
 113.821  0.3101E+00  0.3101E+00  0.2729E+02
 114.321  0.1564E+00  0.1564E+00  0.2745E+02
 114.821  0.1570E+00  0.1570E+00  0.2760E+02
 115.321  0.1758E+00  0.1758E+00  0.2778E+02
 115.821  0.1427E+00  0.1427E+00  0.2792E+02
 116.321  0.2133E+00  0.2133E+00  0.2814E+02
 116.821  0.1670E+00  0.1670E+00  0.2830E+02
 117.321  0.1203E+00  0.1203E+00  0.2842E+02
 117.821  0.1984E+00  0.1984E+00  0.2862E+02
 118.321  0.2655E+00  0.2655E+00  0.2889E+02
 118.821  0.1647E+00  0.1647E+00  0.2905E+02
 119.321  0.3820E+00  0.3820E+00  0.2943E+02
 119.821  0.4631E+00  0.4631E+00  0.2990E+02
 120.321  0.4216E+00  0.4216E+00  0.3032E+02
 120.821  0.3714E+00  0.3714E+00  0.3069E+02
 121.321  0.5132E+00  0.5132E+00  0.3120E+02
 121.821  0.4623E+00  0.4623E+00  0.3167E+02
 122.321  0.3086E+00  0.3086E+00  0.3197E+02
 122.821  0.2710E+00  0.2710E+00  0.3225E+02
 123.321  0.3158E+00  0.3158E+00  0.3256E+02
 123.821  0.2719E+00  0.2719E+00  0.3283E+02
 124.321  0.3695E+00  0.3695E+00  0.3320E+02
 124.821  0.1765E+00  0.1765E+00  0.3338E+02
 125.321  0.2594E+00  0.2594E+00  0.3364E+02
 125.821  0.2320E+00  0.2320E+00  0.3387E+02
 126.321  0.2090E+00  0.2090E+00  0.3408E+02
 126.821  0.2050E+00  0.2050E+00  0.3428E+02
 127.321  0.2289E+00  0.2289E+00  0.3451E+02
 127.821  0.1953E+00  0.1953E+00  0.3471E+02
 128.321  0.2927E+00  0.2927E+00  0.3500E+02
 128.821  0.1646E+00  0.1646E+00  0.3517E+02
 129.321  0.2688E+00  0.2688E+00  0.3544E+02
 129.821  0.2231E+00  0.2231E+00  0.3566E+02
 130.321  0.2393E+00  0.2393E+00  0.3590E+02
 130.821  0.2344E+00  0.2344E+00  0.3613E+02
 131.321  0.2104E+00  0.2104E+00  0.3634E+02
 131.821  0.1703E+00  0.1703E+00  0.3651E+02
 132.321  0.1340E+00  0.1340E+00  0.3665E+02
 132.821  0.2546E+00  0.2546E+00  0.3690E+02
 133.321  0.1806E+00  0.1806E+00  0.3708E+02
 133.821  0.1939E+00  0.1939E+00  0.3728E+02
 134.321  0.3241E+00  0.3241E+00  0.3760E+02
 134.821  0.2706E+00  0.2706E+00  0.3787E+02
 135.321  0.1973E+00  0.1973E+00  0.3807E+02
 135.821  0.2647E+00  0.2647E+00  0.3833E+02
 136.321  0.2302E+00  0.2302E+00  0.3856E+02
 136.821  0.1783E+00  0.1783E+00  0.3874E+02
 137.321  0.1757E+00  0.1757E+00  0.3892E+02
 137.821  0.1819E+00  0.1819E+00  0.3910E+02
 138.321  0.1480E+00  0.1480E+00  0.3925E+02
 138.821  0.3279E+00  0.3279E+00  0.3957E+02
 139.321  0.1801E+00  0.1801E+00  0.3975E+02
 139.821  0.2047E+00  0.2047E+00  0.3996E+02
 140.321  0.1152E+00  0.1152E+00  0.4007E+02
 140.821  0.1293E+00  0.1293E+00  0.4020E+02
 141.321  0.5658E-01  0.5658E-01  0.4026E+02
 141.821  0.1634E+00  0.1634E+00  0.4042E+02
 142.321  0.9440E-01  0.9440E-01  0.4052E+02
 142.821  0.1524E+00  0.1524E+00  0.4067E+02
 143.321  0.8499E-01  0.8499E-01  0.4076E+02
 143.821  0.2513E-01  0.2513E-01  0.4078E+02
 144.321  0.3557E-01  0.3557E-01  0.4082E+02
 144.821  0.4348E-01  0.4348E-01  0.4086E+02
 145.321  0.1713E+00  0.1713E+00  0.4103E+02
 145.821  0.1246E+00  0.1246E+00  0.4116E+02
 146.321  0.4972E-01  0.4972E-01  0.4121E+02
 146.821  0.9824E-01  0.9824E-01  0.4130E+02
 147.321  0.1513E+00  0.1513E+00  0.4145E+02
 147.821  0.6972E-01  0.6972E-01  0.4152E+02
 148.321  0.1040E+00  0.1040E+00  0.4163E+02
 148.821  0.3041E-01  0.3041E-01  0.4166E+02
 149.321  0.1101E+00  0.1101E+00  0.4177E+02
 149.821  0.1111E+00  0.1111E+00  0.4188E+02
 150.321  0.9738E-01  0.9738E-01  0.4198E+02
 150.821  0.3629E-01  0.3629E-01  0.4201E+02
 151.321  0.1222E+00  0.1222E+00  0.4214E+02
 151.821  0.3954E-01  0.3954E-01  0.4218E+02
 152.321  0.1651E+00  0.1651E+00  0.4234E+02
 152.821  0.7638E-01  0.7638E-01  0.4242E+02
 153.321  0.1375E+00  0.1375E+00  0.4255E+02
 153.821  0.1104E+00  0.1104E+00  0.4266E+02
 154.321  0.1361E+00  0.1361E+00  0.4280E+02
 154.821  0.9841E-01  0.9841E-01  0.4290E+02
 155.321  0.7991E-01  0.7991E-01  0.4298E+02
 155.821  0.1121E+00  0.1121E+00  0.4309E+02
 156.321  0.8818E-01  0.8818E-01  0.4318E+02
 156.821  0.9073E-01  0.9073E-01  0.4327E+02
 157.321  0.1051E+00  0.1051E+00  0.4338E+02
 157.821  0.8145E-01  0.8145E-01  0.4346E+02
 158.321  0.1159E+00  0.1159E+00  0.4357E+02
