# E (eV)  ldosup(E)  ldosdw(E) pdosup(E)  pdosdw(E)  pdosup(E)  pdosdw(E)  pdosup(E)  pdosdw(E) 
 21.821  0.255E-07  0.255E-07  0.255E-07  0.255E-07  0.671E-13  0.671E-13  0.671E-13  0.671E-13
 22.321  0.993E-02  0.993E-02  0.617E-02  0.617E-02  0.188E-02  0.188E-02  0.188E-02  0.188E-02
 22.821  0.123E-01  0.123E-01  0.788E-02  0.788E-02  0.218E-02  0.218E-02  0.218E-02  0.218E-02
 23.321  0.155E-01  0.155E-01  0.994E-02  0.994E-02  0.280E-02  0.280E-02  0.280E-02  0.280E-02
 23.821  0.292E-01  0.292E-01  0.969E-02  0.969E-02  0.978E-02  0.978E-02  0.978E-02  0.978E-02
 24.321  0.537E-01  0.537E-01  0.154E-01  0.154E-01  0.192E-01  0.192E-01  0.192E-01  0.192E-01
 24.821  0.516E-01  0.516E-01  0.204E-01  0.204E-01  0.156E-01  0.156E-01  0.156E-01  0.156E-01
 25.321  0.193E-01  0.193E-01  0.136E-01  0.136E-01  0.286E-02  0.286E-02  0.286E-02  0.286E-02
 25.821  0.107E-02  0.107E-02  0.784E-03  0.784E-03  0.142E-03  0.142E-03  0.142E-03  0.142E-03
 26.321  0.532E-19  0.532E-19  0.394E-19  0.394E-19  0.688E-20  0.688E-20  0.688E-20  0.688E-20
 26.821  0.000E+00  0.000E+00  0.000E+00  0.000E+00  0.000E+00  0.000E+00  0.000E+00  0.000E+00
 27.321  0.000E+00  0.000E+00  0.000E+00  0.000E+00  0.000E+00  0.000E+00  0.000E+00  0.000E+00
 27.821  0.000E+00  0.000E+00  0.000E+00  0.000E+00  0.000E+00  0.000E+00  0.000E+00  0.000E+00
 28.321  0.000E+00  0.000E+00  0.000E+00  0.000E+00  0.000E+00  0.000E+00  0.000E+00  0.000E+00
 28.821  0.000E+00  0.000E+00  0.000E+00  0.000E+00  0.000E+00  0.000E+00  0.000E+00  0.000E+00
 29.321  0.000E+00  0.000E+00  0.000E+00  0.000E+00  0.000E+00  0.000E+00  0.000E+00  0.000E+00
 29.821  0.000E+00  0.000E+00  0.000E+00  0.000E+00  0.000E+00  0.000E+00  0.000E+00  0.000E+00
 30.321  0.000E+00  0.000E+00  0.000E+00  0.000E+00  0.000E+00  0.000E+00  0.000E+00  0.000E+00
 30.821  0.000E+00  0.000E+00  0.000E+00  0.000E+00  0.000E+00  0.000E+00  0.000E+00  0.000E+00
 31.321  0.000E+00  0.000E+00  0.000E+00  0.000E+00  0.000E+00  0.000E+00  0.000E+00  0.000E+00
 31.821  0.000E+00  0.000E+00  0.000E+00  0.000E+00  0.000E+00  0.000E+00  0.000E+00  0.000E+00
 32.321  0.000E+00  0.000E+00  0.000E+00  0.000E+00  0.000E+00  0.000E+00  0.000E+00  0.000E+00
 32.821  0.000E+00  0.000E+00  0.000E+00  0.000E+00  0.000E+00  0.000E+00  0.000E+00  0.000E+00
 33.321  0.000E+00  0.000E+00  0.000E+00  0.000E+00  0.000E+00  0.000E+00  0.000E+00  0.000E+00
 33.821  0.000E+00  0.000E+00  0.000E+00  0.000E+00  0.000E+00  0.000E+00  0.000E+00  0.000E+00
 34.321  0.000E+00  0.000E+00  0.000E+00  0.000E+00  0.000E+00  0.000E+00  0.000E+00  0.000E+00
 34.821  0.000E+00  0.000E+00  0.000E+00  0.000E+00  0.000E+00  0.000E+00  0.000E+00  0.000E+00
 35.321  0.000E+00  0.000E+00  0.000E+00  0.000E+00  0.000E+00  0.000E+00  0.000E+00  0.000E+00
 35.821  0.000E+00  0.000E+00  0.000E+00  0.000E+00  0.000E+00  0.000E+00  0.000E+00  0.000E+00
 36.321  0.000E+00  0.000E+00  0.000E+00  0.000E+00  0.000E+00  0.000E+00  0.000E+00  0.000E+00
 36.821  0.000E+00  0.000E+00  0.000E+00  0.000E+00  0.000E+00  0.000E+00  0.000E+00  0.000E+00
 37.321  0.000E+00  0.000E+00  0.000E+00  0.000E+00  0.000E+00  0.000E+00  0.000E+00  0.000E+00
 37.821  0.000E+00  0.000E+00  0.000E+00  0.000E+00  0.000E+00  0.000E+00  0.000E+00  0.000E+00
 38.321  0.000E+00  0.000E+00  0.000E+00  0.000E+00  0.000E+00  0.000E+00  0.000E+00  0.000E+00
 38.821  0.000E+00  0.000E+00  0.000E+00  0.000E+00  0.000E+00  0.000E+00  0.000E+00  0.000E+00
 39.321  0.000E+00  0.000E+00  0.000E+00  0.000E+00  0.000E+00  0.000E+00  0.000E+00  0.000E+00
 39.821  0.000E+00  0.000E+00  0.000E+00  0.000E+00  0.000E+00  0.000E+00  0.000E+00  0.000E+00
 40.321  0.000E+00  0.000E+00  0.000E+00  0.000E+00  0.000E+00  0.000E+00  0.000E+00  0.000E+00
 40.821  0.000E+00  0.000E+00  0.000E+00  0.000E+00  0.000E+00  0.000E+00  0.000E+00  0.000E+00
 41.321  0.000E+00  0.000E+00  0.000E+00  0.000E+00  0.000E+00  0.000E+00  0.000E+00  0.000E+00
 41.821  0.000E+00  0.000E+00  0.000E+00  0.000E+00  0.000E+00  0.000E+00  0.000E+00  0.000E+00
 42.321  0.000E+00  0.000E+00  0.000E+00  0.000E+00  0.000E+00  0.000E+00  0.000E+00  0.000E+00
 42.821  0.000E+00  0.000E+00  0.000E+00  0.000E+00  0.000E+00  0.000E+00  0.000E+00  0.000E+00
 43.321  0.000E+00  0.000E+00  0.000E+00  0.000E+00  0.000E+00  0.000E+00  0.000E+00  0.000E+00
 43.821  0.000E+00  0.000E+00  0.000E+00  0.000E+00  0.000E+00  0.000E+00  0.000E+00  0.000E+00
 44.321  0.000E+00  0.000E+00  0.000E+00  0.000E+00  0.000E+00  0.000E+00  0.000E+00  0.000E+00
 44.821  0.000E+00  0.000E+00  0.000E+00  0.000E+00  0.000E+00  0.000E+00  0.000E+00  0.000E+00
 45.321  0.000E+00  0.000E+00  0.000E+00  0.000E+00  0.000E+00  0.000E+00  0.000E+00  0.000E+00
 45.821  0.000E+00  0.000E+00  0.000E+00  0.000E+00  0.000E+00  0.000E+00  0.000E+00  0.000E+00
 46.321  0.000E+00  0.000E+00  0.000E+00  0.000E+00  0.000E+00  0.000E+00  0.000E+00  0.000E+00
 46.821  0.000E+00  0.000E+00  0.000E+00  0.000E+00  0.000E+00  0.000E+00  0.000E+00  0.000E+00
 47.321  0.000E+00  0.000E+00  0.000E+00  0.000E+00  0.000E+00  0.000E+00  0.000E+00  0.000E+00
 47.821  0.000E+00  0.000E+00  0.000E+00  0.000E+00  0.000E+00  0.000E+00  0.000E+00  0.000E+00
 48.321  0.000E+00  0.000E+00  0.000E+00  0.000E+00  0.000E+00  0.000E+00  0.000E+00  0.000E+00
 48.821  0.304E-07  0.304E-07  0.300E-07  0.300E-07  0.183E-09  0.183E-09  0.183E-09  0.183E-09
 49.321  0.129E-02  0.129E-02  0.837E-03  0.837E-03  0.226E-03  0.226E-03  0.226E-03  0.226E-03
 49.821  0.547E-03  0.547E-03  0.190E-03  0.190E-03  0.179E-03  0.179E-03  0.179E-03  0.179E-03
 50.321  0.799E-02  0.799E-02  0.679E-03  0.679E-03  0.366E-02  0.366E-02  0.366E-02  0.366E-02
 50.821  0.108E-01  0.108E-01  0.142E-02  0.142E-02  0.467E-02  0.467E-02  0.467E-02  0.467E-02
 51.321  0.180E-01  0.180E-01  0.320E-02  0.320E-02  0.742E-02  0.742E-02  0.742E-02  0.742E-02
 51.821  0.203E-01  0.203E-01  0.519E-02  0.519E-02  0.755E-02  0.755E-02  0.755E-02  0.755E-02
 52.321  0.241E-01  0.241E-01  0.750E-02  0.750E-02  0.832E-02  0.832E-02  0.832E-02  0.832E-02
 52.821  0.399E-01  0.399E-01  0.171E-01  0.171E-01  0.114E-01  0.114E-01  0.114E-01  0.114E-01
 53.321  0.322E-01  0.322E-01  0.141E-01  0.141E-01  0.904E-02  0.904E-02  0.904E-02  0.904E-02
 53.821  0.264E-01  0.264E-01  0.129E-01  0.129E-01  0.676E-02  0.676E-02  0.676E-02  0.676E-02
 54.321  0.294E-01  0.294E-01  0.149E-01  0.149E-01  0.727E-02  0.727E-02  0.727E-02  0.727E-02
 54.821  0.336E-01  0.336E-01  0.128E-01  0.128E-01  0.104E-01  0.104E-01  0.104E-01  0.104E-01
 55.321  0.323E-01  0.323E-01  0.134E-01  0.134E-01  0.948E-02  0.948E-02  0.948E-02  0.948E-02
 55.821  0.947E-02  0.947E-02  0.394E-02  0.394E-02  0.276E-02  0.276E-02  0.276E-02  0.276E-02
 56.321  0.861E-02  0.861E-02  0.457E-02  0.457E-02  0.202E-02  0.202E-02  0.202E-02  0.202E-02
 56.821  0.217E-02  0.217E-02  0.125E-02  0.125E-02  0.459E-03  0.459E-03  0.459E-03  0.459E-03
 57.321  0.276E-02  0.276E-02  0.159E-02  0.159E-02  0.586E-03  0.586E-03  0.586E-03  0.586E-03
 57.821  0.208E-02  0.208E-02  0.815E-03  0.815E-03  0.633E-03  0.633E-03  0.633E-03  0.633E-03
 58.321  0.187E-13  0.187E-13  0.769E-14  0.769E-14  0.551E-14  0.551E-14  0.551E-14  0.551E-14
 58.821  0.000E+00  0.000E+00  0.000E+00  0.000E+00  0.000E+00  0.000E+00  0.000E+00  0.000E+00
 59.321  0.000E+00  0.000E+00  0.000E+00  0.000E+00  0.000E+00  0.000E+00  0.000E+00  0.000E+00
 59.821  0.000E+00  0.000E+00  0.000E+00  0.000E+00  0.000E+00  0.000E+00  0.000E+00  0.000E+00
 60.321  0.000E+00  0.000E+00  0.000E+00  0.000E+00  0.000E+00  0.000E+00  0.000E+00  0.000E+00
 60.821  0.000E+00  0.000E+00  0.000E+00  0.000E+00  0.000E+00  0.000E+00  0.000E+00  0.000E+00
 61.321  0.285E-40  0.102E-40  0.370E-41  0.644E-41  0.124E-40  0.187E-41  0.124E-40  0.187E-41
 61.821  0.279E-18  0.997E-19  0.362E-19  0.630E-19  0.121E-18  0.183E-19  0.121E-18  0.183E-19
 62.321  0.906E-19  0.147E-18  0.245E-19  0.232E-19  0.330E-19  0.619E-19  0.330E-19  0.619E-19
 62.821  0.176E-04  0.176E-04  0.308E-05  0.308E-05  0.724E-05  0.724E-05  0.724E-05  0.724E-05
 63.321  0.864E-06  0.864E-06  0.100E-06  0.100E-06  0.382E-06  0.382E-06  0.382E-06  0.382E-06
 63.821  0.150E-04  0.150E-04  0.423E-07  0.423E-07  0.747E-05  0.747E-05  0.747E-05  0.747E-05
 64.321  0.438E-04  0.438E-04  0.217E-05  0.217E-05  0.208E-04  0.208E-04  0.208E-04  0.208E-04
 64.821  0.267E-05  0.267E-05  0.248E-09  0.248E-09  0.133E-05  0.133E-05  0.133E-05  0.133E-05
 65.321  0.474E-04  0.474E-04  0.576E-05  0.576E-05  0.208E-04  0.208E-04  0.208E-04  0.208E-04
 65.821  0.122E-03  0.122E-03  0.251E-04  0.251E-04  0.484E-04  0.484E-04  0.484E-04  0.484E-04
 66.321  0.266E-03  0.266E-03  0.309E-04  0.309E-04  0.118E-03  0.118E-03  0.118E-03  0.118E-03
 66.821  0.175E-04  0.175E-04  0.210E-05  0.210E-05  0.771E-05  0.771E-05  0.771E-05  0.771E-05
 67.321  0.260E-04  0.260E-04  0.332E-07  0.332E-07  0.130E-04  0.130E-04  0.130E-04  0.130E-04
 67.821  0.148E-03  0.148E-03  0.116E-04  0.116E-04  0.682E-04  0.682E-04  0.682E-04  0.682E-04
 68.321  0.195E-03  0.195E-03  0.122E-03  0.122E-03  0.367E-04  0.367E-04  0.367E-04  0.367E-04
 68.821  0.120E-03  0.120E-03  0.833E-04  0.833E-04  0.185E-04  0.185E-04  0.185E-04  0.185E-04
 69.321  0.177E-03  0.177E-03  0.937E-04  0.937E-04  0.418E-04  0.418E-04  0.418E-04  0.418E-04
 69.821  0.402E-04  0.402E-04  0.537E-05  0.537E-05  0.174E-04  0.174E-04  0.174E-04  0.174E-04
 70.321  0.171E-03  0.171E-03  0.117E-03  0.117E-03  0.271E-04  0.271E-04  0.271E-04  0.271E-04
 70.821  0.501E-03  0.501E-03  0.425E-03  0.425E-03  0.380E-04  0.380E-04  0.380E-04  0.380E-04
 71.321  0.750E-04  0.750E-04  0.642E-04  0.642E-04  0.544E-05  0.544E-05  0.544E-05  0.544E-05
 71.821  0.453E-03  0.453E-03  0.409E-03  0.409E-03  0.221E-04  0.221E-04  0.221E-04  0.221E-04
 72.321  0.489E-03  0.489E-03  0.413E-03  0.413E-03  0.383E-04  0.383E-04  0.383E-04  0.383E-04
 72.821  0.441E-03  0.441E-03  0.403E-03  0.403E-03  0.189E-04  0.189E-04  0.189E-04  0.189E-04
 73.321  0.344E-03  0.344E-03  0.298E-03  0.298E-03  0.230E-04  0.230E-04  0.230E-04  0.230E-04
 73.821  0.465E-03  0.465E-03  0.368E-03  0.368E-03  0.484E-04  0.484E-04  0.484E-04  0.484E-04
 74.321  0.693E-03  0.693E-03  0.492E-03  0.492E-03  0.101E-03  0.101E-03  0.101E-03  0.101E-03
 74.821  0.648E-03  0.648E-03  0.563E-03  0.563E-03  0.426E-04  0.426E-04  0.426E-04  0.426E-04
 75.321  0.725E-03  0.725E-03  0.636E-03  0.636E-03  0.444E-04  0.444E-04  0.444E-04  0.444E-04
 75.821  0.250E-02  0.250E-02  0.170E-02  0.170E-02  0.400E-03  0.400E-03  0.400E-03  0.400E-03
 76.321  0.153E-02  0.153E-02  0.920E-03  0.920E-03  0.307E-03  0.307E-03  0.307E-03  0.307E-03
 76.821  0.168E-02  0.168E-02  0.486E-03  0.486E-03  0.599E-03  0.599E-03  0.599E-03  0.599E-03
 77.321  0.195E-02  0.195E-02  0.659E-03  0.659E-03  0.643E-03  0.643E-03  0.643E-03  0.643E-03
 77.821  0.164E-02  0.164E-02  0.548E-03  0.548E-03  0.545E-03  0.545E-03  0.545E-03  0.545E-03
 78.321  0.304E-02  0.304E-02  0.897E-03  0.897E-03  0.107E-02  0.107E-02  0.107E-02  0.107E-02
 78.821  0.335E-03  0.335E-03  0.622E-04  0.622E-04  0.137E-03  0.137E-03  0.137E-03  0.137E-03
 79.321  0.452E-03  0.452E-03  0.287E-03  0.287E-03  0.829E-04  0.829E-04  0.829E-04  0.829E-04
 79.821  0.780E-03  0.780E-03  0.271E-03  0.271E-03  0.255E-03  0.255E-03  0.255E-03  0.255E-03
 80.321  0.201E-02  0.201E-02  0.986E-03  0.986E-03  0.511E-03  0.511E-03  0.511E-03  0.511E-03
 80.821  0.393E-02  0.393E-02  0.213E-02  0.213E-02  0.901E-03  0.901E-03  0.901E-03  0.901E-03
 81.321  0.342E-02  0.342E-02  0.164E-02  0.164E-02  0.891E-03  0.891E-03  0.891E-03  0.891E-03
 81.821  0.433E-02  0.433E-02  0.147E-02  0.147E-02  0.143E-02  0.143E-02  0.143E-02  0.143E-02
 82.321  0.501E-02  0.501E-02  0.234E-02  0.234E-02  0.133E-02  0.133E-02  0.133E-02  0.133E-02
 82.821  0.638E-02  0.638E-02  0.325E-02  0.325E-02  0.156E-02  0.156E-02  0.156E-02  0.156E-02
 83.321  0.556E-02  0.556E-02  0.272E-02  0.272E-02  0.142E-02  0.142E-02  0.142E-02  0.142E-02
 83.821  0.494E-02  0.494E-02  0.214E-02  0.214E-02  0.140E-02  0.140E-02  0.140E-02  0.140E-02
 84.321  0.779E-02  0.779E-02  0.357E-02  0.357E-02  0.211E-02  0.211E-02  0.211E-02  0.211E-02
 84.821  0.556E-02  0.556E-02  0.229E-02  0.229E-02  0.163E-02  0.163E-02  0.163E-02  0.163E-02
 85.321  0.428E-02  0.428E-02  0.181E-02  0.181E-02  0.124E-02  0.124E-02  0.124E-02  0.124E-02
 85.821  0.672E-02  0.672E-02  0.272E-02  0.272E-02  0.200E-02  0.200E-02  0.200E-02  0.200E-02
 86.321  0.960E-02  0.960E-02  0.313E-02  0.313E-02  0.324E-02  0.324E-02  0.324E-02  0.324E-02
 86.821  0.539E-02  0.539E-02  0.215E-02  0.215E-02  0.162E-02  0.162E-02  0.162E-02  0.162E-02
 87.321  0.662E-02  0.662E-02  0.352E-02  0.352E-02  0.155E-02  0.155E-02  0.155E-02  0.155E-02
 87.821  0.433E-02  0.433E-02  0.170E-02  0.170E-02  0.132E-02  0.132E-02  0.132E-02  0.132E-02
 88.321  0.706E-02  0.706E-02  0.287E-02  0.287E-02  0.210E-02  0.210E-02  0.210E-02  0.210E-02
 88.821  0.752E-02  0.752E-02  0.412E-02  0.412E-02  0.170E-02  0.170E-02  0.170E-02  0.170E-02
 89.321  0.690E-02  0.690E-02  0.342E-02  0.342E-02  0.174E-02  0.174E-02  0.174E-02  0.174E-02
 89.821  0.947E-02  0.947E-02  0.601E-02  0.601E-02  0.173E-02  0.173E-02  0.173E-02  0.173E-02
 90.321  0.663E-02  0.663E-02  0.225E-02  0.225E-02  0.219E-02  0.219E-02  0.219E-02  0.219E-02
 90.821  0.640E-02  0.640E-02  0.189E-02  0.189E-02  0.225E-02  0.225E-02  0.225E-02  0.225E-02
 91.321  0.100E-01  0.100E-01  0.483E-02  0.483E-02  0.260E-02  0.260E-02  0.260E-02  0.260E-02
 91.821  0.739E-02  0.739E-02  0.347E-02  0.347E-02  0.196E-02  0.196E-02  0.196E-02  0.196E-02
 92.321  0.468E-02  0.468E-02  0.193E-02  0.193E-02  0.138E-02  0.138E-02  0.138E-02  0.138E-02
 92.821  0.783E-02  0.783E-02  0.215E-02  0.215E-02  0.284E-02  0.284E-02  0.284E-02  0.284E-02
 93.321  0.975E-02  0.975E-02  0.198E-02  0.198E-02  0.389E-02  0.389E-02  0.389E-02  0.389E-02
 93.821  0.366E-02  0.366E-02  0.859E-03  0.859E-03  0.140E-02  0.140E-02  0.140E-02  0.140E-02
 94.321  0.392E-02  0.392E-02  0.102E-02  0.102E-02  0.145E-02  0.145E-02  0.145E-02  0.145E-02
 94.821  0.462E-02  0.462E-02  0.910E-03  0.910E-03  0.185E-02  0.185E-02  0.185E-02  0.185E-02
 95.321  0.769E-02  0.769E-02  0.157E-02  0.157E-02  0.306E-02  0.306E-02  0.306E-02  0.306E-02
 95.821  0.361E-02  0.361E-02  0.531E-03  0.531E-03  0.154E-02  0.154E-02  0.154E-02  0.154E-02
 96.321  0.381E-02  0.381E-02  0.943E-03  0.943E-03  0.144E-02  0.144E-02  0.144E-02  0.144E-02
 96.821  0.303E-02  0.303E-02  0.812E-03  0.812E-03  0.111E-02  0.111E-02  0.111E-02  0.111E-02
 97.321  0.339E-02  0.339E-02  0.819E-03  0.819E-03  0.129E-02  0.129E-02  0.129E-02  0.129E-02
 97.821  0.288E-02  0.288E-02  0.728E-03  0.728E-03  0.108E-02  0.108E-02  0.108E-02  0.108E-02
 98.321  0.437E-02  0.437E-02  0.125E-02  0.125E-02  0.156E-02  0.156E-02  0.156E-02  0.156E-02
 98.821  0.206E-02  0.206E-02  0.864E-03  0.864E-03  0.597E-03  0.597E-03  0.597E-03  0.597E-03
 99.321  0.470E-02  0.470E-02  0.157E-02  0.157E-02  0.156E-02  0.156E-02  0.156E-02  0.156E-02
 99.821  0.426E-02  0.426E-02  0.160E-02  0.160E-02  0.133E-02  0.133E-02  0.133E-02  0.133E-02
100.321  0.335E-02  0.335E-02  0.186E-02  0.186E-02  0.746E-03  0.746E-03  0.746E-03  0.746E-03
100.821  0.481E-02  0.481E-02  0.205E-02  0.205E-02  0.138E-02  0.138E-02  0.138E-02  0.138E-02
101.321  0.236E-02  0.236E-02  0.106E-02  0.106E-02  0.651E-03  0.651E-03  0.651E-03  0.651E-03
101.821  0.143E-02  0.143E-02  0.686E-03  0.686E-03  0.374E-03  0.374E-03  0.374E-03  0.374E-03
102.321  0.398E-02  0.398E-02  0.107E-02  0.107E-02  0.146E-02  0.146E-02  0.146E-02  0.146E-02
102.821  0.507E-02  0.507E-02  0.258E-02  0.258E-02  0.124E-02  0.124E-02  0.124E-02  0.124E-02
103.321  0.145E-02  0.145E-02  0.587E-03  0.587E-03  0.430E-03  0.430E-03  0.430E-03  0.430E-03
103.821  0.296E-02  0.296E-02  0.136E-02  0.136E-02  0.804E-03  0.804E-03  0.804E-03  0.804E-03
104.321  0.192E-02  0.192E-02  0.956E-03  0.956E-03  0.481E-03  0.481E-03  0.481E-03  0.481E-03
104.821  0.290E-02  0.290E-02  0.103E-02  0.103E-02  0.937E-03  0.937E-03  0.937E-03  0.937E-03
105.321  0.295E-02  0.295E-02  0.148E-02  0.148E-02  0.731E-03  0.731E-03  0.731E-03  0.731E-03
105.821  0.364E-02  0.364E-02  0.855E-03  0.855E-03  0.139E-02  0.139E-02  0.139E-02  0.139E-02
106.321  0.375E-02  0.375E-02  0.112E-02  0.112E-02  0.132E-02  0.132E-02  0.132E-02  0.132E-02
106.821  0.687E-02  0.687E-02  0.278E-02  0.278E-02  0.204E-02  0.204E-02  0.204E-02  0.204E-02
107.321  0.837E-02  0.837E-02  0.366E-02  0.366E-02  0.235E-02  0.235E-02  0.235E-02  0.235E-02
107.821  0.987E-02  0.987E-02  0.295E-02  0.295E-02  0.346E-02  0.346E-02  0.346E-02  0.346E-02
108.321  0.549E-02  0.549E-02  0.254E-02  0.254E-02  0.147E-02  0.147E-02  0.147E-02  0.147E-02
108.821  0.678E-02  0.678E-02  0.280E-02  0.280E-02  0.199E-02  0.199E-02  0.199E-02  0.199E-02
109.321  0.541E-02  0.541E-02  0.127E-02  0.127E-02  0.207E-02  0.207E-02  0.207E-02  0.207E-02
109.821  0.777E-02  0.777E-02  0.242E-02  0.242E-02  0.268E-02  0.268E-02  0.268E-02  0.268E-02
110.321  0.118E-01  0.118E-01  0.324E-02  0.324E-02  0.430E-02  0.430E-02  0.430E-02  0.430E-02
110.821  0.796E-02  0.796E-02  0.220E-02  0.220E-02  0.288E-02  0.288E-02  0.288E-02  0.288E-02
111.321  0.120E-01  0.120E-01  0.481E-02  0.481E-02  0.361E-02  0.361E-02  0.361E-02  0.361E-02
111.821  0.368E-02  0.368E-02  0.525E-03  0.525E-03  0.158E-02  0.158E-02  0.158E-02  0.158E-02
112.321  0.480E-02  0.480E-02  0.125E-02  0.125E-02  0.178E-02  0.178E-02  0.178E-02  0.178E-02
112.821  0.150E-01  0.150E-01  0.421E-02  0.421E-02  0.539E-02  0.539E-02  0.539E-02  0.539E-02
113.321  0.108E-01  0.108E-01  0.352E-02  0.352E-02  0.365E-02  0.365E-02  0.365E-02  0.365E-02
113.821  0.798E-02  0.798E-02  0.167E-02  0.167E-02  0.315E-02  0.315E-02  0.315E-02  0.315E-02
114.321  0.399E-02  0.399E-02  0.815E-03  0.815E-03  0.159E-02  0.159E-02  0.159E-02  0.159E-02
114.821  0.802E-02  0.802E-02  0.121E-02  0.121E-02  0.340E-02  0.340E-02  0.340E-02  0.340E-02
115.321  0.693E-02  0.693E-02  0.286E-02  0.286E-02  0.204E-02  0.204E-02  0.204E-02  0.204E-02
115.821  0.685E-02  0.685E-02  0.292E-02  0.292E-02  0.197E-02  0.197E-02  0.197E-02  0.197E-02
116.321  0.838E-02  0.838E-02  0.406E-02  0.406E-02  0.216E-02  0.216E-02  0.216E-02  0.216E-02
116.821  0.532E-02  0.532E-02  0.269E-02  0.269E-02  0.131E-02  0.131E-02  0.131E-02  0.131E-02
117.321  0.881E-02  0.881E-02  0.580E-02  0.580E-02  0.151E-02  0.151E-02  0.151E-02  0.151E-02
117.821  0.101E-01  0.101E-01  0.538E-02  0.538E-02  0.236E-02  0.236E-02  0.236E-02  0.236E-02
118.321  0.231E-01  0.231E-01  0.101E-01  0.101E-01  0.647E-02  0.647E-02  0.647E-02  0.647E-02
118.821  0.134E-01  0.134E-01  0.485E-02  0.485E-02  0.429E-02  0.429E-02  0.429E-02  0.429E-02
119.321  0.204E-01  0.204E-01  0.793E-02  0.793E-02  0.623E-02  0.623E-02  0.623E-02  0.623E-02
119.821  0.380E-01  0.380E-01  0.116E-01  0.116E-01  0.132E-01  0.132E-01  0.132E-01  0.132E-01
120.321  0.333E-01  0.333E-01  0.145E-01  0.145E-01  0.936E-02  0.936E-02  0.936E-02  0.936E-02
120.821  0.334E-01  0.334E-01  0.950E-02  0.950E-02  0.120E-01  0.120E-01  0.120E-01  0.120E-01
121.321  0.411E-01  0.411E-01  0.148E-01  0.148E-01  0.132E-01  0.132E-01  0.132E-01  0.132E-01
121.821  0.308E-01  0.308E-01  0.825E-02  0.825E-02  0.113E-01  0.113E-01  0.113E-01  0.113E-01
122.321  0.263E-01  0.263E-01  0.841E-02  0.841E-02  0.897E-02  0.897E-02  0.897E-02  0.897E-02
122.821  0.157E-01  0.157E-01  0.530E-02  0.530E-02  0.522E-02  0.522E-02  0.522E-02  0.522E-02
123.321  0.247E-01  0.247E-01  0.114E-01  0.114E-01  0.666E-02  0.666E-02  0.666E-02  0.666E-02
123.821  0.221E-01  0.221E-01  0.596E-02  0.596E-02  0.805E-02  0.805E-02  0.805E-02  0.805E-02
124.321  0.261E-01  0.261E-01  0.628E-02  0.628E-02  0.993E-02  0.993E-02  0.993E-02  0.993E-02
124.821  0.136E-01  0.136E-01  0.483E-02  0.483E-02  0.440E-02  0.440E-02  0.440E-02  0.440E-02
125.321  0.172E-01  0.172E-01  0.464E-02  0.464E-02  0.626E-02  0.626E-02  0.626E-02  0.626E-02
125.821  0.132E-01  0.132E-01  0.377E-02  0.377E-02  0.471E-02  0.471E-02  0.471E-02  0.471E-02
126.321  0.215E-01  0.215E-01  0.688E-02  0.688E-02  0.733E-02  0.733E-02  0.733E-02  0.733E-02
126.821  0.182E-01  0.182E-01  0.822E-02  0.822E-02  0.498E-02  0.498E-02  0.498E-02  0.498E-02
127.321  0.229E-01  0.229E-01  0.579E-02  0.579E-02  0.856E-02  0.856E-02  0.856E-02  0.856E-02
127.821  0.151E-01  0.151E-01  0.639E-02  0.639E-02  0.434E-02  0.434E-02  0.434E-02  0.434E-02
128.321  0.217E-01  0.217E-01  0.644E-02  0.644E-02  0.764E-02  0.764E-02  0.764E-02  0.764E-02
128.821  0.104E-01  0.104E-01  0.369E-02  0.369E-02  0.334E-02  0.334E-02  0.334E-02  0.334E-02
129.321  0.208E-01  0.208E-01  0.391E-02  0.391E-02  0.846E-02  0.846E-02  0.846E-02  0.846E-02
129.821  0.112E-01  0.112E-01  0.481E-02  0.481E-02  0.319E-02  0.319E-02  0.319E-02  0.319E-02
130.321  0.223E-01  0.223E-01  0.229E-02  0.229E-02  0.100E-01  0.100E-01  0.100E-01  0.100E-01
130.821  0.183E-01  0.183E-01  0.385E-02  0.385E-02  0.722E-02  0.722E-02  0.722E-02  0.722E-02
131.321  0.143E-01  0.143E-01  0.136E-02  0.136E-02  0.646E-02  0.646E-02  0.646E-02  0.646E-02
131.821  0.105E-01  0.105E-01  0.352E-02  0.352E-02  0.350E-02  0.350E-02  0.350E-02  0.350E-02
132.321  0.843E-02  0.843E-02  0.175E-02  0.175E-02  0.334E-02  0.334E-02  0.334E-02  0.334E-02
132.821  0.114E-01  0.114E-01  0.341E-02  0.341E-02  0.397E-02  0.397E-02  0.397E-02  0.397E-02
133.321  0.625E-02  0.625E-02  0.229E-02  0.229E-02  0.198E-02  0.198E-02  0.198E-02  0.198E-02
133.821  0.738E-02  0.738E-02  0.139E-02  0.139E-02  0.300E-02  0.300E-02  0.300E-02  0.300E-02
134.321  0.128E-01  0.128E-01  0.357E-02  0.357E-02  0.459E-02  0.459E-02  0.459E-02  0.459E-02
134.821  0.129E-01  0.129E-01  0.436E-02  0.436E-02  0.428E-02  0.428E-02  0.428E-02  0.428E-02
135.321  0.619E-02  0.619E-02  0.192E-02  0.192E-02  0.213E-02  0.213E-02  0.213E-02  0.213E-02
135.821  0.164E-01  0.164E-01  0.245E-02  0.245E-02  0.698E-02  0.698E-02  0.698E-02  0.698E-02
136.321  0.102E-01  0.102E-01  0.283E-02  0.283E-02  0.368E-02  0.368E-02  0.368E-02  0.368E-02
136.821  0.883E-02  0.883E-02  0.251E-02  0.251E-02  0.316E-02  0.316E-02  0.316E-02  0.316E-02
137.321  0.694E-02  0.694E-02  0.233E-02  0.233E-02  0.231E-02  0.231E-02  0.231E-02  0.231E-02
137.821  0.881E-02  0.881E-02  0.225E-02  0.225E-02  0.328E-02  0.328E-02  0.328E-02  0.328E-02
138.321  0.503E-02  0.503E-02  0.185E-02  0.185E-02  0.159E-02  0.159E-02  0.159E-02  0.159E-02
138.821  0.215E-01  0.215E-01  0.817E-02  0.817E-02  0.669E-02  0.669E-02  0.669E-02  0.669E-02
139.321  0.122E-01  0.122E-01  0.547E-02  0.547E-02  0.338E-02  0.338E-02  0.338E-02  0.338E-02
139.821  0.190E-01  0.190E-01  0.564E-02  0.564E-02  0.670E-02  0.670E-02  0.670E-02  0.670E-02
140.321  0.978E-02  0.978E-02  0.415E-02  0.415E-02  0.282E-02  0.282E-02  0.282E-02  0.282E-02
140.821  0.124E-01  0.124E-01  0.427E-02  0.427E-02  0.406E-02  0.406E-02  0.406E-02  0.406E-02
141.321  0.392E-02  0.392E-02  0.129E-02  0.129E-02  0.131E-02  0.131E-02  0.131E-02  0.131E-02
141.821  0.190E-01  0.190E-01  0.403E-02  0.403E-02  0.749E-02  0.749E-02  0.749E-02  0.749E-02
142.321  0.114E-01  0.114E-01  0.400E-02  0.400E-02  0.368E-02  0.368E-02  0.368E-02  0.368E-02
142.821  0.166E-01  0.166E-01  0.623E-02  0.623E-02  0.520E-02  0.520E-02  0.520E-02  0.520E-02
143.321  0.112E-01  0.112E-01  0.223E-02  0.223E-02  0.447E-02  0.447E-02  0.447E-02  0.447E-02
143.821  0.456E-02  0.456E-02  0.831E-03  0.831E-03  0.186E-02  0.186E-02  0.186E-02  0.186E-02
144.321  0.552E-02  0.552E-02  0.263E-02  0.263E-02  0.145E-02  0.145E-02  0.145E-02  0.145E-02
144.821  0.647E-02  0.647E-02  0.862E-03  0.862E-03  0.280E-02  0.280E-02  0.280E-02  0.280E-02
145.321  0.240E-01  0.240E-01  0.738E-02  0.738E-02  0.832E-02  0.832E-02  0.832E-02  0.832E-02
145.821  0.179E-01  0.179E-01  0.961E-02  0.961E-02  0.416E-02  0.416E-02  0.416E-02  0.416E-02
146.321  0.702E-02  0.702E-02  0.182E-02  0.182E-02  0.260E-02  0.260E-02  0.260E-02  0.260E-02
146.821  0.135E-01  0.135E-01  0.285E-02  0.285E-02  0.532E-02  0.532E-02  0.532E-02  0.532E-02
147.321  0.224E-01  0.224E-01  0.853E-02  0.853E-02  0.692E-02  0.692E-02  0.692E-02  0.692E-02
147.821  0.868E-02  0.868E-02  0.481E-02  0.481E-02  0.194E-02  0.194E-02  0.194E-02  0.194E-02
148.321  0.145E-01  0.145E-01  0.827E-02  0.827E-02  0.313E-02  0.313E-02  0.313E-02  0.313E-02
148.821  0.400E-02  0.400E-02  0.131E-02  0.131E-02  0.135E-02  0.135E-02  0.135E-02  0.135E-02
149.321  0.138E-01  0.138E-01  0.732E-02  0.732E-02  0.325E-02  0.325E-02  0.325E-02  0.325E-02
149.821  0.123E-01  0.123E-01  0.478E-02  0.478E-02  0.377E-02  0.377E-02  0.377E-02  0.377E-02
150.321  0.106E-01  0.106E-01  0.527E-02  0.527E-02  0.268E-02  0.268E-02  0.268E-02  0.268E-02
150.821  0.405E-02  0.405E-02  0.218E-02  0.218E-02  0.939E-03  0.939E-03  0.939E-03  0.939E-03
151.321  0.126E-01  0.126E-01  0.683E-02  0.683E-02  0.290E-02  0.290E-02  0.290E-02  0.290E-02
151.821  0.307E-02  0.307E-02  0.953E-03  0.953E-03  0.106E-02  0.106E-02  0.106E-02  0.106E-02
152.321  0.170E-01  0.170E-01  0.805E-02  0.805E-02  0.448E-02  0.448E-02  0.448E-02  0.448E-02
152.821  0.768E-02  0.768E-02  0.287E-02  0.287E-02  0.241E-02  0.241E-02  0.241E-02  0.241E-02
153.321  0.106E-01  0.106E-01  0.397E-02  0.397E-02  0.330E-02  0.330E-02  0.330E-02  0.330E-02
153.821  0.746E-02  0.746E-02  0.545E-02  0.545E-02  0.100E-02  0.100E-02  0.100E-02  0.100E-02
154.321  0.913E-02  0.913E-02  0.385E-02  0.385E-02  0.264E-02  0.264E-02  0.264E-02  0.264E-02
154.821  0.120E-01  0.120E-01  0.475E-02  0.475E-02  0.364E-02  0.364E-02  0.364E-02  0.364E-02
155.321  0.776E-02  0.776E-02  0.279E-02  0.279E-02  0.248E-02  0.248E-02  0.248E-02  0.248E-02
155.821  0.929E-02  0.929E-02  0.120E-02  0.120E-02  0.405E-02  0.405E-02  0.405E-02  0.405E-02
156.321  0.597E-02  0.597E-02  0.118E-02  0.118E-02  0.240E-02  0.240E-02  0.240E-02  0.240E-02
156.821  0.833E-02  0.833E-02  0.156E-02  0.156E-02  0.338E-02  0.338E-02  0.338E-02  0.338E-02
157.321  0.702E-02  0.702E-02  0.734E-03  0.734E-03  0.314E-02  0.314E-02  0.314E-02  0.314E-02
157.821  0.326E-02  0.326E-02  0.763E-03  0.763E-03  0.125E-02  0.125E-02  0.125E-02  0.125E-02
158.321  0.646E-02  0.646E-02  0.843E-03  0.843E-03  0.281E-02  0.281E-02  0.281E-02  0.281E-02
158.821  0.116E-01  0.116E-01  0.318E-02  0.318E-02  0.420E-02  0.420E-02  0.420E-02  0.420E-02
159.321  0.387E-02  0.387E-02  0.854E-03  0.854E-03  0.151E-02  0.151E-02  0.151E-02  0.151E-02
159.821  0.895E-02  0.895E-02  0.120E-02  0.120E-02  0.387E-02  0.387E-02  0.387E-02  0.387E-02
160.321  0.112E-01  0.112E-01  0.178E-02  0.178E-02  0.473E-02  0.473E-02  0.473E-02  0.473E-02
160.821  0.286E-02  0.286E-02  0.632E-03  0.632E-03  0.112E-02  0.112E-02  0.112E-02  0.112E-02
161.321  0.831E-02  0.831E-02  0.190E-02  0.190E-02  0.320E-02  0.320E-02  0.320E-02  0.320E-02
161.821  0.932E-02  0.932E-02  0.136E-02  0.136E-02  0.398E-02  0.398E-02  0.398E-02  0.398E-02
162.321  0.747E-02  0.747E-02  0.154E-02  0.154E-02  0.296E-02  0.296E-02  0.296E-02  0.296E-02
162.821  0.170E-01  0.170E-01  0.353E-02  0.352E-02  0.672E-02  0.672E-02  0.672E-02  0.672E-02
163.321  0.138E-01  0.138E-01  0.241E-02  0.241E-02  0.569E-02  0.569E-02  0.569E-02  0.569E-02
163.821  0.106E-01  0.106E-01  0.109E-02  0.109E-02  0.478E-02  0.478E-02  0.478E-02  0.478E-02
164.321  0.145E-01  0.145E-01  0.373E-02  0.373E-02  0.538E-02  0.538E-02  0.538E-02  0.538E-02
164.821  0.112E-01  0.112E-01  0.270E-02  0.270E-02  0.423E-02  0.423E-02  0.423E-02  0.423E-02
165.321  0.157E-01  0.157E-01  0.436E-02  0.436E-02  0.568E-02  0.568E-02  0.568E-02  0.568E-02
165.821  0.528E-02  0.528E-02  0.160E-02  0.160E-02  0.184E-02  0.184E-02  0.184E-02  0.184E-02
166.321  0.259E-02  0.259E-02  0.109E-02  0.109E-02  0.751E-03  0.751E-03  0.751E-03  0.751E-03
166.821  0.559E-02  0.559E-02  0.163E-02  0.163E-02  0.198E-02  0.198E-02  0.198E-02  0.198E-02
167.321  0.553E-02  0.553E-02  0.833E-03  0.833E-03  0.235E-02  0.235E-02  0.235E-02  0.235E-02
167.821  0.382E-02  0.382E-02  0.106E-03  0.106E-03  0.186E-02  0.186E-02  0.186E-02  0.186E-02
168.321  0.525E-02  0.525E-02  0.216E-02  0.216E-02  0.154E-02  0.154E-02  0.154E-02  0.154E-02
168.821  0.293E-02  0.293E-02  0.116E-03  0.116E-03  0.141E-02  0.141E-02  0.141E-02  0.141E-02
169.321  0.621E-03  0.621E-03  0.207E-03  0.207E-03  0.207E-03  0.207E-03  0.207E-03  0.207E-03
169.821  0.136E-03  0.136E-03  0.123E-03  0.123E-03  0.630E-05  0.630E-05  0.630E-05  0.630E-05
170.321  0.310E-02  0.310E-02  0.877E-03  0.877E-03  0.111E-02  0.111E-02  0.111E-02  0.111E-02
170.821  0.125E-02  0.125E-02  0.466E-03  0.466E-03  0.393E-03  0.393E-03  0.393E-03  0.393E-03
171.321  0.141E-04  0.141E-04  0.233E-05  0.233E-05  0.586E-05  0.586E-05  0.586E-05  0.586E-05
171.821  0.356E-06  0.356E-06  0.127E-07  0.127E-07  0.172E-06  0.172E-06  0.172E-06  0.172E-06
172.321  0.155E-03  0.155E-03  0.697E-05  0.697E-05  0.740E-04  0.740E-04  0.740E-04  0.740E-04
172.821  0.477E-03  0.477E-03  0.110E-06  0.110E-06  0.239E-03  0.239E-03  0.239E-03  0.239E-03
173.321  0.871E-03  0.871E-03  0.531E-03  0.531E-03  0.170E-03  0.170E-03  0.170E-03  0.170E-03
173.821  0.706E-08  0.706E-08  0.668E-17  0.682E-17  0.353E-08  0.353E-08  0.353E-08  0.353E-08
